#  E SED of Coleman, Wu, and Weedman (1980)
#  Extended below 1400 A and beyond 10000 A by
#  Bolzonella, Miralles, and Pello (2000) using evolutionary models
#  of Bruzual and Charlot (1993)
#
#  Obtained from ZPHOT code at
#  'http://webast.ast.obs-mip.fr/hyperz/zphot_src_1.1.tar.gz'
#
#  Truncated to wavelengths less than 12000 Angstroms, and thinned by
#  galsim.utilities.thin_tabulated_values to a relative error of 1.e-5
#
#  Angstroms     Flux/A
#
     128.00       5.22049
     186.00      30.89325
     274.00      74.93937
     328.00      85.01451
     395.00      91.48933
     451.00      88.35355
     506.00      78.19128
     530.00      77.98804
     560.00      72.76174
     620.00      64.77711
     705.00      50.43382
     755.00      46.86251
     855.00      36.55508
     915.00      32.57728
     955.00      69.94534
     965.00      71.94876
     975.00      41.17165
     985.00      58.56362
    1015.00      66.28693
    1025.00      52.66951
    1055.00      69.68403
    1085.00      56.87959
    1105.00      60.94449
    1125.00      52.61144
    1155.00      56.56021
    1175.00      40.79419
    1195.00      45.87532
    1215.00      35.48079
    1235.00      50.54996
    1285.00      50.95644
    1305.00      44.16225
    1345.00      46.51409
    1385.00      40.93937
    1405.00      31.76430
    1447.00      37.74552
    1500.00      34.00000
    1700.00      32.00000
    1800.00      32.00000
    1900.00      34.00000
    2100.00      43.00000
    2200.00      45.00000
    2400.00      34.00000
    2500.00      36.00000
    2600.00      46.00000
    2800.00     106.00000
    2980.00     184.00000
    3020.00     193.00000
    3060.00     190.00000
    3100.00     203.00000
    3140.00     245.00000
    3180.00     293.00000
    3220.00     309.00000
    3260.00     302.00000
    3300.00     310.00000
    3380.00     310.00000
    3460.00     328.00000
    3500.00     343.00000
    3580.00     321.00000
    3620.00     362.00000
    3660.00     411.00000
    3700.00     423.00000
    3740.00     399.00000
    3780.00     362.00000
    3820.00     318.00000
    3860.00     322.00000
    3900.00     358.00000
    3940.00     410.00000
    3980.00     551.00000
    4020.00     684.00000
    4060.00     733.00000
    4100.00     722.00000
    4140.00     687.00000
    4180.00     696.00000
    4220.00     733.00000
    4260.00     735.00000
    4300.00     764.00000
    4340.00     840.00000
    4380.00     881.00000
    4420.00     927.00000
    4460.00     994.00000
    4500.00    1036.00000
    4540.00    1066.00000
    4580.00    1106.00000
    4620.00    1124.00000
    4660.00    1112.00000
    4700.00    1124.00000
    4740.00    1174.00000
    4780.00    1209.00000
    4820.00    1201.00000
    4860.00    1167.00000
    4900.00    1168.00000
    4940.00    1188.00000
    5020.00    1116.00000
    5060.00    1121.00000
    5100.00    1113.00000
    5140.00    1061.00000
    5180.00    1043.00000
    5260.00    1177.00000
    5300.00    1220.00000
    5340.00    1256.00000
    5380.00    1236.00000
    5420.00    1205.00000
    5500.00    1229.00000
    5540.00    1248.00000
    5580.00    1256.00000
    5620.00    1253.00000
    5660.00    1260.00000
    5740.00    1257.00000
    5820.00    1226.00000
    5860.00    1206.00000
    5900.00    1212.00000
    5980.00    1286.00000
    6020.00    1313.00000
    6060.00    1325.00000
    6100.00    1324.00000
    6140.00    1312.00000
    6220.00    1267.00000
    6260.00    1241.00000
    6300.00    1220.00000
    6340.00    1214.00000
    6380.00    1220.00000
    6460.00    1248.00000
    6540.00    1277.00000
    6580.00    1287.00000
    6620.00    1284.00000
    6660.00    1265.00000
    6700.00    1252.00000
    6780.00    1248.00000
    6860.00    1252.00000
    6980.00    1252.00000
    7060.00    1238.00000
    7100.00    1216.00000
    7140.00    1168.00000
    7180.00    1128.00000
    7220.00    1134.00000
    7300.00    1215.00000
    7340.00    1238.00000
    7380.00    1253.00000
    7420.00    1263.00000
    7460.00    1268.00000
    7500.00    1267.00000
    7540.00    1257.00000
    7580.00    1238.00000
    7620.00    1214.00000
    7660.00    1195.00000
    7740.00    1165.00000
    7860.00    1108.00000
    7900.00    1091.00000
    7940.00    1082.00000
    8000.00    1091.00000
    8100.00    1137.00000
    8200.00    1147.00000
    8300.00    1163.00000
    8400.00    1121.00000
    8500.00    1054.00000
    8700.00    1141.00000
    8800.00    1161.00000
    8900.00    1133.00000
    9000.00    1128.00000
    9100.00    1163.00000
    9200.00    1141.00000
    9300.00    1101.00000
    9400.00    1049.00000
    9500.00    1072.00000
    9600.00    1071.00000
    9700.00    1059.00000
    9800.00    1063.00000
    9900.00    1084.00000
   10000.00    1144.00000
   10025.00    1088.54400
   10075.00    1075.26100
   10125.00    1089.59300
   10175.00    1077.35800
   10275.00    1085.74800
   10325.00    1072.81400
   10375.00    1065.12400
   10425.00    1068.96900
   10475.00    1052.19000
   10525.00    1040.30400
   10575.00    1017.58300
   10625.00    1006.39700
   10675.00     999.05570
   10725.00    1006.04700
   10775.00     998.00700
   10825.00     982.62620
   10875.00     977.03310
   10925.00     975.28530
   10975.00     959.20540
   11025.00     949.41750
   11075.00     931.58970
   11125.00     930.54110
   11175.00     923.54980
   11225.00     923.54980
   11275.00     913.76200
   11325.00     912.36370
   11425.00     896.28380
   11475.00     905.37240
   11525.00     902.57590
   11625.00     878.45600
   11725.00     878.80550
   11775.00     859.92900
   11825.00     849.44210
   11875.00     834.76040
   11925.00     846.29600
   11975.00     819.03000
